1) Altitude (km)                       [Z]
2) Pressure (mb)                       [P]
3) Temperature (K)                     [T]
4) WaterVapor/Air Mixing Ratio (gm/kg) [H2O]
5) Ozone/Air mixing ratio (gm/gm)      [O3]


@
Number of Gases: 2,
@
Number of Layers:   79,
@
        Z          P          T        H2O          O3
@
        0.00      970.20      299.59   0.129E+02   0.519E-07
        0.25      946.27      297.93   0.106E+02   0.530E-07
        0.50      922.35      296.26   0.842E+01   0.542E-07
        0.75      896.36      295.59   0.709E+01   0.556E-07
        1.00      869.79      295.07   0.652E+01   0.571E-07
        1.25      844.06      294.35   0.675E+01   0.586E-07
        1.50      819.65      293.15   0.763E+01   0.601E-07
        1.75      796.31      291.39   0.865E+01   0.617E-07
        2.00      773.60      289.27   0.886E+01   0.637E-07
        2.25      751.21      287.16   0.757E+01   0.657E-07
        2.50      729.12      285.41   0.533E+01   0.679E-07
        2.75      707.49      284.16   0.333E+01   0.702E-07
        3.00      686.51      283.25   0.213E+01   0.725E-07
        3.25      666.28      282.37   0.162E+01   0.749E-07
        3.50      646.79      281.16   0.155E+01   0.774E-07
        3.75      627.92      279.46   0.176E+01   0.799E-07
        4.00      609.50      277.32   0.202E+01   0.825E-07
        4.25      591.37      275.00   0.200E+01   0.852E-07
        4.50      573.40      272.81   0.154E+01   0.880E-07
        4.75      555.58      270.97   0.942E+00   0.910E-07
        5.00      538.00      269.56   0.497E+00   0.945E-07
        5.25      520.82      268.45   0.261E+00   0.981E-07
        5.50      504.21      267.44   0.161E+00   0.102E-06
        5.75      488.23      266.30   0.129E+00   0.106E-06
        6.00      472.84      264.88   0.130E+00   0.111E-06
        6.25      457.93      263.16   0.143E+00   0.116E-06
        6.50      443.41      261.21   0.149E+00   0.122E-06
        6.75      429.20      259.16   0.136E+00   0.128E-06
        7.00      415.30      257.12   0.108E+00   0.133E-06
        7.25      401.73      255.19   0.788E-01   0.138E-06
        7.50      388.50      253.40   0.573E-01   0.144E-06
        7.75      375.60      251.75   0.438E-01   0.149E-06
        8.00      363.01      250.22   0.355E-01   0.156E-06
        8.25      350.75      248.76   0.298E-01   0.164E-06
        8.50      338.84      247.31   0.251E-01   0.173E-06
        8.75      327.30      245.82   0.209E-01   0.181E-06
        9.00      316.14      244.26   0.174E-01   0.189E-06
        9.25      305.31      242.65   0.145E-01   0.197E-06
        9.50      294.77      241.02   0.122E-01   0.205E-06
        9.75      284.48      239.40   0.106E-01   0.213E-06
       10.00      274.43      237.81   0.950E-02   0.227E-06
       10.25      264.64      236.23   0.890E-02   0.246E-06
       10.50      255.16      234.65   0.870E-02   0.267E-06
       10.75      246.01      233.04   0.840E-02   0.289E-06
       11.00      237.19      231.43   0.760E-02   0.308E-06
       11.25      228.68      229.83   0.600E-02   0.324E-06
       11.50      220.46      228.30   0.410E-02   0.342E-06
       11.75      212.46      226.81   0.250E-02   0.360E-06
       12.00      204.66      225.32   0.140E-02   0.384E-06
       12.25      197.02      223.75   0.900E-03   0.413E-06
       12.50      189.54      222.05   0.600E-03   0.445E-06
       12.75      182.24      220.18   0.500E-03   0.479E-06
       13.00      175.15      218.17   0.400E-03   0.523E-06
       13.25      168.32      216.11   0.400E-03   0.577E-06
       13.50      161.75      214.09   0.300E-03   0.636E-06
       13.75      155.45      212.20   0.200E-03   0.701E-06
       14.00      149.36      210.46   0.200E-03   0.743E-06
       14.25      143.43      208.86   0.100E-03   0.767E-06
       14.50      137.66      207.35   0.100E-03   0.792E-06
       14.75      132.03      205.84   0.100E-03   0.818E-06
       15.00      126.59      204.33   0.100E-03   0.854E-06
       15.25      121.36      202.86   0.100E-03   0.897E-06
       15.50      116.36      201.53   0.100E-03   0.941E-06
       15.75      111.59      200.50   0.100E-03   0.988E-06
       17.00       95.00      216.00   0.360E-02   0.116E-05
       18.00       81.20      216.00   0.380E-02   0.166E-05
       19.00       69.50      217.00   0.440E-02   0.249E-05
       20.00       59.50      218.00   0.480E-02   0.331E-05
       21.00       51.00      219.00   0.630E-02   0.398E-05
       22.00       43.70      220.00   0.740E-02   0.480E-05
       23.00       37.60      221.33   0.920E-02   0.565E-05
       24.00       32.20      222.66   0.120E-01   0.662E-05
       25.00       27.70      224.00   0.156E-01   0.794E-05
       30.00       13.20      234.00   0.272E-01   0.116E-04
       35.00        6.52      245.00   0.169E-01   0.148E-04
       40.00        3.33      258.00   0.129E-01   0.125E-04
       45.00        1.76      270.00   0.108E-01   0.746E-05
       50.00        0.95      276.00   0.660E-02   0.463E-05
       70.00        0.07      218.00   0.210E-02   0.662E-06
