1) Altitude (km) 			[Z]
2) Pressure (mb) 			[P]
3) Temperature (K) 			[T]
4) WaterVapor/Air Mixing Ratio (gm/kg)	[H2O]
5) Ozone/Air mixing ratio (gm/gm)	[O3]

@
Number of Gases: 2,
@
Number of Layers:   79,
@
        Z          P          T        H2O          O3
@
        0.00      986.40      290.54   0.602E+01   0.512E-07
        0.25      962.53      287.66   0.590E+01   0.523E-07
        0.50      938.67      284.79   0.579E+01   0.534E-07
        0.75      910.80      282.72   0.510E+01   0.548E-07
        1.00      882.33      281.12   0.453E+01   0.564E-07
        1.25      854.97      279.92   0.414E+01   0.579E-07
        1.50      829.32      278.86   0.394E+01   0.595E-07
        1.75      805.05      277.69   0.390E+01   0.610E-07
        2.00      781.47      276.28   0.390E+01   0.630E-07
        2.25      758.08      274.67   0.374E+01   0.651E-07
        2.50      734.80      273.05   0.325E+01   0.673E-07
        2.75      711.87      271.59   0.245E+01   0.697E-07
        3.00      689.63      270.37   0.162E+01   0.722E-07
        3.25      668.28      269.34   0.100E+01   0.747E-07
        3.50      647.77      268.34   0.640E+00   0.772E-07
        3.75      627.87      267.19   0.476E+00   0.799E-07
        4.00      608.35      265.77   0.443E+00   0.826E-07
        4.25      589.10      264.07   0.496E+00   0.855E-07
        4.50      570.13      262.17   0.579E+00   0.886E-07
        4.75      551.56      260.23   0.595E+00   0.918E-07
        5.00      533.50      258.39   0.472E+00   0.954E-07
        5.25      516.01      256.73   0.274E+00   0.991E-07
        5.50      499.07      255.23   0.121E+00   0.103E-06
        5.75      482.62      253.79   0.480E-01   0.107E-06
        6.00      466.59      252.29   0.229E-01   0.113E-06
        6.25      450.98      250.61   0.168E-01   0.119E-06
        6.50      435.79      248.71   0.197E-01   0.125E-06
        6.75      421.04      246.63   0.310E-01   0.131E-06
        7.00      406.73      244.46   0.500E-01   0.136E-06
        7.25      392.83      242.33   0.680E-01   0.142E-06
        7.50      379.28      240.27   0.724E-01   0.148E-06
        7.75      366.05      238.26   0.621E-01   0.155E-06
        8.00      353.12      236.22   0.467E-01   0.163E-06
        8.25      340.48      234.06   0.342E-01   0.171E-06
        8.50      328.15      231.77   0.264E-01   0.181E-06
        8.75      316.16      229.44   0.218E-01   0.189E-06
        9.00      304.51      227.23   0.186E-01   0.197E-06
        9.25      293.23      225.27   0.155E-01   0.206E-06
        9.50      282.31      223.58   0.122E-01   0.215E-06
        9.75      271.74      221.99   0.900E-02   0.232E-06
       10.00      261.50      220.26   0.640E-02   0.253E-06
       10.25      251.55      218.19   0.450E-02   0.275E-06
       10.50      241.87      215.78   0.340E-02   0.299E-06
       10.75      232.44      213.33   0.290E-02   0.317E-06
       11.00      223.25      211.32   0.270E-02   0.336E-06
       11.25      214.32      210.25   0.290E-02   0.356E-06
       11.50      205.69      210.34   0.320E-02   0.380E-06
       11.75      197.45      211.46   0.340E-02   0.411E-06
       12.00      189.63      213.12   0.330E-02   0.444E-06
       12.25      182.25      214.71   0.260E-02   0.479E-06
       12.50      175.26      215.74   0.180E-02   0.522E-06
       12.75      168.59      216.00   0.100E-02   0.575E-06
       13.00      162.14      215.61   0.600E-03   0.632E-06
       13.25      155.86      214.89   0.400E-03   0.697E-06
       13.50      149.75      214.17   0.300E-03   0.741E-06
       13.75      143.85      213.65   0.300E-03   0.765E-06
       14.00      138.20      213.35   0.300E-03   0.789E-06
       14.25      132.82      213.15   0.300E-03   0.814E-06
       14.50      127.66      212.93   0.300E-03   0.846E-06
       14.75      122.63      212.63   0.200E-03   0.886E-06
       15.00      117.66      212.27   0.200E-03   0.929E-06
       15.25      112.77      211.92   0.200E-03   0.976E-06
       15.50      108.09      211.59   0.200E-03   0.102E-05
       15.75      103.78      211.21   0.200E-03   0.106E-05
       17.00       95.00      216.00   0.360E-02   0.116E-05
       18.00       81.20      216.00   0.380E-02   0.166E-05
       19.00       69.50      217.00   0.440E-02   0.249E-05
       20.00       59.50      218.00   0.480E-02   0.331E-05
       21.00       51.00      219.00   0.630E-02   0.398E-05
       22.00       43.70      220.00   0.740E-02   0.480E-05
       23.00       37.60      221.33   0.920E-02   0.565E-05
       24.00       32.20      222.66   0.120E-01   0.662E-05
       25.00       27.70      224.00   0.156E-01   0.794E-05
       30.00       13.20      234.00   0.272E-01   0.116E-04
       35.00        6.52      245.00   0.169E-01   0.148E-04
       40.00        3.33      258.00   0.129E-01   0.125E-04
       45.00        1.76      270.00   0.108E-01   0.746E-05
       50.00        0.95      276.00   0.660E-02   0.463E-05
       70.00        0.07      218.00   0.210E-02   0.662E-06
