1) Altitude (km)                       [Z]
2) Pressure (mb)                       [P]
3) Temperature (K)                     [T]
4) WaterVapor/Air Mixing Ratio (gm/kg) [H2O]
5) Ozone/Air mixing ratio (gm/gm)      [O3]


@
Number of Gases: 2,
@
Number of Layers:   79,
@
        Z          P          T        H2O          O3
@
        0.00      976.00      301.34   0.831E+01   0.516E-07
        0.25      952.28      298.74   0.708E+01   0.528E-07
        0.50      928.55      296.14   0.585E+01   0.539E-07
        0.75      902.27      294.08   0.502E+01   0.553E-07
        1.00      875.42      292.28   0.432E+01   0.567E-07
        1.25      849.45      290.80   0.367E+01   0.582E-07
        1.50      824.88      289.54   0.305E+01   0.597E-07
        1.75      801.47      288.37   0.253E+01   0.612E-07
        2.00      778.74      287.15   0.219E+01   0.632E-07
        2.25      756.34      285.83   0.204E+01   0.652E-07
        2.50      734.14      284.42   0.204E+01   0.674E-07
        2.75      712.26      282.96   0.210E+01   0.697E-07
        3.00      690.86      281.53   0.207E+01   0.720E-07
        3.25      670.06      280.14   0.185E+01   0.745E-07
        3.50      649.85      278.81   0.147E+01   0.770E-07
        3.75      630.17      277.47   0.107E+01   0.796E-07
        4.00      610.98      276.07   0.775E+00   0.823E-07
        4.25      592.24      274.54   0.612E+00   0.850E-07
        4.50      573.99      272.87   0.558E+00   0.879E-07
        4.75      556.24      271.08   0.589E+00   0.909E-07
        5.00      538.99      269.19   0.680E+00   0.943E-07
        5.25      522.19      267.25   0.792E+00   0.978E-07
        5.50      505.79      265.26   0.873E+00   0.101E-06
        5.75      489.73      263.24   0.883E+00   0.105E-06
        6.00      473.98      261.16   0.829E+00   0.110E-06
        6.25      458.58      259.02   0.747E+00   0.116E-06
        6.50      443.57      256.82   0.666E+00   0.122E-06
        6.75      429.00      254.62   0.597E+00   0.128E-06
        7.00      414.87      252.50   0.530E+00   0.133E-06
        7.25      401.16      250.53   0.452E+00   0.138E-06
        7.50      387.83      248.74   0.366E+00   0.144E-06
        7.75      374.83      247.11   0.283E+00   0.150E-06
        8.00      362.11      245.52   0.219E+00   0.157E-06
        8.25      349.68      243.84   0.179E+00   0.165E-06
        8.50      337.52      241.96   0.161E+00   0.174E-06
        8.75      325.66      239.84   0.158E+00   0.183E-06
        9.00      314.09      237.54   0.163E+00   0.191E-06
        9.25      302.84      235.20   0.164E+00   0.199E-06
        9.50      291.94      232.96   0.153E+00   0.207E-06
        9.75      281.41      230.94   0.127E+00   0.216E-06
       10.00      271.24      229.22   0.944E-01   0.233E-06
       10.25      261.42      227.84   0.644E-01   0.253E-06
       10.50      251.90      226.77   0.422E-01   0.274E-06
       10.75      242.65      225.94   0.277E-01   0.298E-06
       11.00      233.64      225.28   0.190E-01   0.314E-06
       11.25      224.89      224.67   0.138E-01   0.332E-06
       11.50      216.42      224.03   0.105E-01   0.351E-06
       11.75      208.28      223.29   0.830E-02   0.371E-06
       12.00      200.46      222.42   0.650E-02   0.400E-06
       12.25      192.95      221.42   0.510E-02   0.430E-06
       12.50      185.68      220.30   0.390E-02   0.462E-06
       12.75      178.62      219.10   0.300E-02   0.499E-06
       13.00      171.74      217.82   0.230E-02   0.549E-06
       13.25      165.05      216.48   0.190E-02   0.605E-06
       13.50      158.59      215.08   0.160E-02   0.668E-06
       13.75      152.37      213.61   0.140E-02   0.731E-06
       14.00      146.39      212.10   0.120E-02   0.755E-06
       14.25      140.63      210.60   0.100E-02   0.779E-06
       14.50      135.07      209.13   0.800E-03   0.804E-06
       14.75      129.71      207.74   0.700E-03   0.830E-06
       15.00      124.53      206.45   0.600E-03   0.870E-06
       15.25      119.52      205.24   0.600E-03   0.913E-06
       15.50      114.65      204.10   0.600E-03   0.957E-06
       15.75      109.87      203.03   0.600E-03   0.100E-05
       17.00       95.00      216.00   0.360E-02   0.116E-05
       18.00       81.20      216.00   0.380E-02   0.166E-05
       19.00       69.50      217.00   0.440E-02   0.249E-05
       20.00       59.50      218.00   0.480E-02   0.331E-05
       21.00       51.00      219.00   0.630E-02   0.398E-05
       22.00       43.70      220.00   0.740E-02   0.480E-05
       23.00       37.60      221.33   0.920E-02   0.565E-05
       24.00       32.20      222.66   0.120E-01   0.662E-05
       25.00       27.70      224.00   0.156E-01   0.794E-05
       30.00       13.20      234.00   0.272E-01   0.116E-04
       35.00        6.52      245.00   0.169E-01   0.148E-04
       40.00        3.33      258.00   0.129E-01   0.125E-04
       45.00        1.76      270.00   0.108E-01   0.746E-05
       50.00        0.95      276.00   0.660E-02   0.463E-05
       70.00        0.07      218.00   0.210E-02   0.662E-06
