1) Altitude (km) 			[Z]
2) Pressure (mb) 			[P]
3) Temperature (K) 			[T]
4) WaterVapor/Air Mixing Ratio (gm/kg)	[H2O]
5) Ozone/Air mixing ratio (gm/gm)	[O3]
6) N2O Volume mixing ratio (ppmv)	[N2O]
7) Methane Volume mixing ratio (ppmv)	[CH4]


@
Number of Gases: 4,
@
Number of Layers: 49,
@
           Z           P           T         H2O          O3        N2O      CH4
@
       0.0    1013.00    257.200     0.8769        2.98e-08     0.3200     1.7000
       1.0     887.80    259.100     1.0075        3.43e-08     0.3200     1.7000
       2.0     777.50    255.900     0.8893        3.88e-08     0.3200     1.7000
       3.0     679.80    252.700     0.7276        4.59e-08     0.3200     1.7000
       4.0     593.20    247.700     0.4913        5.38e-08     0.3200     1.7000
       5.0     515.80    240.900     0.2680        6.30e-08     0.3200     1.6900
       6.0     446.70    234.100     0.1474        7.37e-08     0.3200     1.6700
       7.0     385.30    227.300     0.0914        1.20e-07     0.3200     1.6500
       8.0     330.80    220.600     0.0210        1.72e-07     0.3200     1.6300
       9.0     282.90    217.200     0.0185        3.48e-07     0.3160     1.6200
      10.0     241.80    217.200     0.0124        4.97e-07     0.3100     1.5800
      11.0     206.70    217.200     0.0062        5.80e-07     0.2990     1.5400
      12.0     176.60    217.200     0.0037        6.63e-07     0.2940     1.5100
      13.0     151.00    217.200     0.0028        1.08e-06     0.2860     1.4700
      14.0     129.10    217.200     0.0028        1.49e-06     0.2800     1.4300
      15.0     110.30    217.200     0.0028        1.99e-06     0.2720     1.3900
      16.0      94.31    216.600     0.0029        2.49e-06     0.2610     1.3400
      17.0      80.58    216.000     0.0029        3.15e-06     0.2420     1.2900
      18.0      68.82    215.400     0.0029        4.06e-06     0.2170     1.2300
      19.0      58.75    214.800     0.0030        5.14e-06     0.1840     1.1600
      20.0      50.14    214.200     0.0030        6.13e-06     0.1620     1.0800
      21.0      42.77    213.600     0.0030        6.63e-06     0.1360     1.0100
      22.0      36.47    213.000     0.0030        6.96e-06     0.1230     0.9560
      23.0      31.09    212.400     0.0031        7.46e-06     0.1120     0.9010
      24.0      26.49    211.800     0.0031        7.62e-06     0.1040     0.8480
      25.0      22.56    211.200     0.0031        7.79e-06     0.0957     0.7960
      26.0      19.22    212.200     0.0031        7.92e-06     0.0914     0.7730
      28.0      13.98    214.100     0.0031        8.27e-06     0.0836     0.7350
      30.0      10.20    216.000     0.0031        8.95e-06     0.0731     0.6940
      32.0       7.47    218.000     0.0031        9.61e-06     0.0602     0.6540
      34.0       5.48    220.800     0.0031        1.01e-05     0.0508     0.6110
      36.0       4.04    224.800     0.0031        1.03e-05     0.0418     0.5630
      38.0       3.00    229.700     0.0031        1.03e-05     0.0324     0.5090
      40.0       2.24    234.700     0.0031        9.78e-06     0.0247     0.4510
      42.0       1.69    239.600     0.0031        8.73e-06     0.0179     0.3870
      44.0       1.28    244.500     0.0031        7.47e-06     0.0128     0.3280
      46.0       0.97    249.500     0.0031        6.05e-06     0.0092     0.2780
      48.0       0.74    254.400     0.0031        4.82e-06     0.0064     0.2360
      50.0       0.57    259.300     0.0031        4.31e-06     0.0040     0.1980
      52.0       0.44    259.200     0.0031        3.66e-06     0.0032     0.1800
      54.0       0.34    259.100     0.0030        2.98e-06     0.0027     0.1660
      56.0       0.26    257.500     0.0030        2.42e-06     0.0024     0.1570
      58.0       0.20    254.200     0.0029        1.97e-06     0.0020     0.1530
      60.0       0.15    250.900     0.0028        1.57e-06     0.0017     0.1500
      62.0       0.12    249.900     0.0027        1.36e-06     0.0015     0.1500
      64.0       0.09    248.900     0.0026        1.17e-06     0.0014     0.1500
      66.0       0.07    247.800     0.0024        1.02e-06     0.0012     0.1500
      68.0       0.05    246.600     0.0022        9.23e-07     0.0011     0.1500
      70.0       0.04    245.400     0.0021        8.28e-07     0.0010     0.1500
